File: xrd/previousNaming/CuOCuCl2_650.xy
5.000	304.000
5.290	281.000
5.580	284.000
5.870	266.000
6.160	243.000
6.450	256.000
6.740	229.000
7.030	256.000
7.320	222.000
7.610	242.000
7.900	236.000
8.190	220.000
8.480	231.000
8.770	238.000
9.060	251.000
9.350	234.000
9.640	220.000
9.930	247.000
10.220	238.000
10.510	247.000
10.800	238.000
11.090	243.000
11.380	235.000
11.670	236.000
11.960	240.000
12.250	220.000
12.540	250.000
12.830	219.000
13.120	212.000
13.410	209.000
13.700	219.000
13.990	214.000
14.280	202.000
14.570	199.000
14.860	195.000
15.150	201.000
15.440	189.000
15.730	187.000
16.020	202.000
16.310	182.000
16.600	175.000
16.890	182.000
17.180	179.000
17.470	191.000
17.760	169.000
18.050	171.000
18.340	166.000
18.630	163.000
18.920	204.000
19.210	156.000
19.500	157.000
19.790	160.000
20.080	160.000
20.370	163.000
20.660	152.000
20.950	154.000
21.240	151.000
21.530	161.000
21.820	146.000
22.110	170.000
22.400	155.000
22.690	159.000
22.980	159.000
23.270	140.000
23.560	126.000
23.850	155.000
24.140	141.000
24.430	140.000
24.720	141.000
25.010	144.000
25.300	142.000
25.590	137.000
25.880	141.000
26.170	144.000
26.460	150.000
26.750	136.000
27.040	159.000
27.330	137.000
27.620	134.000
27.910	139.000
28.200	162.000
28.490	195.000
28.780	149.000
29.070	150.000
29.360	162.000
29.650	154.000
29.940	159.000
30.230	155.000
30.520	207.000
30.810	261.000
31.100	370.000
31.390	882.000
31.680	22768.000
31.970	798.000
32.260	298.000
32.550	260.000
32.840	222.000
33.130	257.000
33.420	276.000
33.710	285.000
34.000	564.000
34.290	12412.000
34.580	943.000
34.870	409.000
35.160	401.000
35.450	555.000
35.740	920.000
36.030	8537.000
36.320	7801.000
36.610	690.000
36.900	398.000
37.190	304.000
37.480	291.000
37.770	250.000
38.060	243.000
38.350	253.000
38.640	320.000
38.930	226.000
39.220	193.000
39.510	187.000
39.800	180.000
40.090	169.000
40.380	163.000
40.670	179.000
40.960	184.000
41.250	155.000
41.540	146.000
41.830	155.000
42.120	145.000
42.410	139.000
42.700	151.000
42.990	184.000
43.280	144.000
43.570	134.000
43.860	123.000
44.150	133.000
44.440	128.000
44.730	137.000
45.020	135.000
45.310	148.000
45.600	129.000
45.890	162.000
46.180	165.000
46.470	154.000
46.760	169.000
47.050	327.000
47.340	2719.000
47.630	2551.000
47.920	269.000
48.210	185.000
48.500	164.000
48.790	144.000
49.080	125.000
49.370	135.000
49.660	134.000
49.950	115.000
50.240	124.000
50.530	133.000
50.820	120.000
51.110	132.000
51.400	126.000
51.690	129.000
51.980	145.000
52.270	121.000
52.560	119.000
52.850	128.000
53.140	129.000
53.430	134.000
53.720	133.000
54.010	117.000
54.300	144.000
54.590	159.000
54.880	153.000
55.170	157.000
55.460	187.000
55.750	204.000
56.040	386.000
56.330	2076.000
56.620	6209.000
56.910	535.000
57.200	233.000
57.490	181.000
57.780	175.000
58.070	157.000
58.360	152.000
58.650	149.000
58.940	148.000
59.230	147.000
59.520	147.000
59.810	146.000
60.100	126.000
60.390	167.000
60.680	169.000
60.970	170.000
61.260	167.000
61.550	199.000
61.840	193.000
62.130	248.000
62.420	620.000
62.710	6208.000
63.000	2967.000
63.290	378.000
63.580	227.000
63.870	184.000
64.160	167.000
64.450	159.000
64.740	165.000
65.030	161.000
65.320	188.000
65.610	203.000
65.900	255.000
66.190	969.000
66.480	788.000
66.770	236.000
67.060	227.000
67.350	381.000
67.640	1294.000
67.930	4335.000
68.220	880.000
68.510	356.000
68.800	889.000
69.090	2064.000
69.380	413.000
69.670	203.000
69.960	169.000
70.250	146.000
70.540	143.000
70.830	133.000
71.120	136.000
71.410	132.000
71.700	145.000
71.990	161.000
72.280	221.000
72.570	430.000
72.860	192.000
73.150	119.000
73.440	122.000
73.730	135.000
74.020	120.000
74.310	122.000
74.600	128.000
74.890	133.000
75.180	129.000
75.470	117.000
75.760	120.000
76.050	114.000
76.340	139.000
76.630	289.000
76.920	811.000
77.210	299.000
77.500	136.000
77.790	112.000
78.080	103.000
78.370	108.000
78.660	109.000
78.950	111.000
79.240	110.000
79.530	111.000
79.820	100.000
80.110	111.000
80.400	112.000
80.690	95.000
80.980	155.000
81.270	494.000
81.560	326.000
81.850	127.000
82.140	108.000
82.430	105.000
82.720	112.000
83.010	96.000
83.300	101.000
83.590	86.000
83.880	113.000
84.170	107.000
84.460	102.000
84.750	111.000
85.040	117.000
85.330	106.000
85.620	113.000
85.910	93.000
86.200	103.000
86.490	111.000
86.780	98.000
87.070	101.000
87.360	104.000
87.650	117.000
87.940	113.000
88.230	123.000
88.520	129.000
88.810	137.000
89.100	238.000
89.390	998.000
89.680	1066.000
89.970	590.000
90.000	590.000