File: xrd/previousNaming/ZnOCuCl2_650.xy
5.000	484.000
5.290	468.000
5.580	423.000
5.870	415.000
6.160	438.000
6.450	433.000
6.740	395.000
7.030	396.000
7.320	402.000
7.610	403.000
7.900	390.000
8.190	400.000
8.480	392.000
8.770	387.000
9.060	392.000
9.350	395.000
9.640	426.000
9.930	417.000
10.220	415.000
10.510	408.000
10.800	423.000
11.090	404.000
11.380	452.000
11.670	459.000
11.960	461.000
12.250	450.000
12.540	458.000
12.830	452.000
13.120	461.000
13.410	437.000
13.700	456.000
13.990	451.000
14.280	451.000
14.570	472.000
14.860	484.000
15.150	737.000
15.440	635.000
15.730	504.000
16.020	470.000
16.310	469.000
16.600	458.000
16.890	490.000
17.180	499.000
17.470	478.000
17.760	455.000
18.050	494.000
18.340	516.000
18.630	567.000
18.920	6170.000
19.210	613.000
19.500	527.000
19.790	496.000
20.080	526.000
20.370	514.000
20.660	494.000
20.950	511.000
21.240	477.000
21.530	491.000
21.820	506.000
22.110	484.000
22.400	525.000
22.690	538.000
22.980	817.000
23.270	1972.000
23.560	3963.000
23.850	1155.000
24.140	722.000
24.430	572.000
24.720	565.000
25.010	570.000
25.300	648.000
25.590	2129.000
25.880	901.000
26.170	580.000
26.460	516.000
26.750	671.000
27.040	536.000
27.330	539.000
27.620	536.000
27.910	569.000
28.200	550.000
28.490	632.000
28.780	1263.000
29.070	4710.000
29.360	1077.000
29.650	739.000
29.940	923.000
30.230	4410.000
30.520	842.000
30.810	1471.000
31.100	1218.000
31.390	5316.000
31.680	1855.000
31.970	1912.000
32.260	643.000
32.550	717.000
32.840	565.000
33.130	555.000
33.420	543.000
33.710	549.000
34.000	555.000
34.290	568.000
34.580	718.000
34.870	893.000
35.160	687.000
35.450	3619.000
35.740	2763.000
36.030	864.000
36.320	3019.000
36.610	2539.000
36.900	754.000
37.190	570.000
37.480	597.000
37.770	567.000
38.060	618.000
38.350	858.000
38.640	3110.000
38.930	678.000
39.220	581.000
39.510	589.000
39.800	688.000
40.090	1204.000
40.380	641.000
40.670	590.000
40.960	1241.000
41.250	684.000
41.540	558.000
41.830	536.000
42.120	590.000
42.410	726.000
42.700	1662.000
42.990	884.000
43.280	918.000
43.570	783.000
43.860	681.000
44.150	583.000
44.440	585.000
44.730	860.000
45.020	1619.000
45.310	679.000
45.600	871.000
45.890	665.000
46.180	564.000
46.470	549.000
46.760	668.000
47.050	753.000
47.340	1069.000
47.630	950.000
47.920	653.000
48.210	891.000
48.500	697.000
48.790	813.000
49.080	1278.000
49.370	1425.000
49.660	753.000
49.950	615.000
50.240	765.000
50.530	1053.000
50.820	744.000
51.110	610.000
51.400	621.000
51.690	689.000
51.980	1195.000
52.270	826.000
52.560	760.000
52.850	828.000
53.140	1418.000
53.430	2618.000
53.720	704.000
54.010	686.000
54.300	623.000
54.590	590.000
54.880	615.000
55.170	1298.000
55.460	974.000
55.750	644.000
56.040	1119.000
56.330	1043.000
56.620	1189.000
56.910	864.000
57.200	627.000
57.490	574.000
57.780	536.000
58.070	588.000
58.360	681.000
58.650	739.000
58.940	740.000
59.230	700.000
59.520	662.000
59.810	636.000
60.100	711.000
60.390	703.000
60.680	977.000
60.970	981.000
61.260	651.000
61.550	662.000
61.840	954.000
62.130	908.000
62.420	1192.000
62.710	1779.000
63.000	874.000
63.290	1049.000
63.580	901.000
63.870	1240.000
64.160	1120.000
64.450	759.000
64.740	700.000
65.030	890.000
65.320	1007.000
65.610	769.000
65.900	932.000
66.190	1618.000
66.480	1438.000
66.770	940.000
67.060	864.000
67.350	1009.000
67.640	675.000
67.930	1111.000
68.220	1092.000
68.510	592.000
68.800	552.000
69.090	623.000
69.380	625.000
69.670	625.000
69.960	656.000
70.250	731.000
70.540	624.000
70.830	571.000
71.120	562.000
71.410	555.000
71.700	549.000
71.990	540.000
72.280	589.000
72.570	619.000
72.860	786.000
73.150	837.000
73.440	624.000
73.730	575.000
74.020	627.000
74.310	745.000
74.600	818.000
74.890	718.000
75.180	788.000
75.470	699.000
75.760	663.000
76.050	618.000
76.340	592.000
76.630	615.000
76.920	691.000
77.210	707.000
77.500	648.000
77.790	633.000
78.080	850.000
78.370	705.000
78.660	686.000
78.950	573.000
79.240	544.000
79.530	536.000
79.820	574.000
80.110	561.000
80.400	649.000
80.690	595.000
80.980	522.000
81.270	552.000
81.560	619.000
81.850	634.000
82.140	664.000
82.430	621.000
82.720	805.000
83.010	759.000
83.300	671.000
83.590	674.000
83.880	757.000
84.170	782.000
84.460	798.000
84.750	846.000
85.040	780.000
85.330	624.000
85.620	624.000
85.910	582.000
86.200	631.000
86.490	697.000
86.780	747.000
87.070	661.000
87.360	678.000
87.650	638.000
87.940	638.000
88.230	670.000
88.520	651.000
88.810	759.000
89.100	846.000
89.390	749.000
89.680	745.000
89.970	788.000
90.000	788.000