File: xrd/previousNaming/ZnOCuCl2_before.xy
3	272
3.34	235
3.68	180
4.02	160
4.36	202
4.7	197
5.04	223
5.38	235
5.72	283
6.06	261
6.4	287
6.74	298
7.08	306
7.42	352
7.76	384
8.1	367
8.44	432
8.78	403
9.12	418
9.46	433
9.8	521
10.14	461
10.48	541
10.82	535
11.16	611
11.5	1262
11.84	782
12.18	745
12.52	790
12.86	742
13.2	773
13.54	810
13.88	723
14.22	785
14.56	737
14.9	722
15.24	763
15.58	696
15.92	932
16.26	2261
16.6	1213
16.94	911
17.28	858
17.62	864
17.96	823
18.3	716
18.64	744
18.98	776
19.32	705
19.66	717
20	643
20.34	662
20.68	647
21.02	670
21.36	681
21.7	751
22.04	694
22.38	744
22.72	859
23.06	2582
23.4	844
23.74	745
24.08	722
24.42	763
24.76	744
25.1	824
25.44	783
25.78	828
26.12	973
26.46	914
26.8	855
27.14	827
27.48	832
27.82	815
28.16	927
28.5	951
28.84	981
29.18	960
29.52	987
29.86	1064
30.2	1027
30.54	1229
30.88	1464
31.22	1601
31.56	2014
31.9	2023
32.24	3214
32.58	3130
32.92	2224
33.26	1740
33.6	1620
33.94	1714
34.28	1234
34.62	1184
34.96	1427
35.3	1422
35.64	1209
35.98	1218
36.32	1321
36.66	1284
37	1200
37.34	1205
37.68	1239
38.02	1634
38.36	3513
38.7	1490
39.04	1601
39.38	2358
39.72	3978
40.06	2606
40.4	1577
40.74	1490
41.08	1361
41.42	1313
41.76	1173
42.1	1314
42.44	1424
42.78	1645
43.12	1703
43.46	1377
43.8	1290
44.14	1427
44.48	1338
44.82	1432
45.16	1456
45.5	1586
45.84	1604
46.18	1378
46.52	1385
46.86	1589
47.2	1606
47.54	1455
47.88	1522
48.22	1503
48.56	1439
48.9	1350
49.24	1476
49.58	1545
49.92	1995
50.26	2056
50.6	1660
50.94	1575
51.28	1532
51.62	1654
51.96	1657
52.3	1812
52.64	1617
52.98	1654
53.32	2036
53.66	2161
54	1774
54.34	1590
54.68	1600
55.02	1725
55.36	1525
55.7	1469
56.04	1606
56.38	1790
56.72	1619
57.06	1540
57.4	1531
57.74	1535
58.08	1512
58.42	1631
58.76	1867
59.1	1552
59.44	1560
59.78	1646
60.12	1764
60.46	1530
60.8	1573
61.14	1843
61.48	1847
61.82	1895
62.16	1880
62.5	1598
62.84	1508
63.18	1530
63.52	1495
63.86	1627
64.2	1507
64.54	1549
64.88	1463
65.22	1453
65.56	1519
65.9	1582
66.24	1544
66.58	1483
66.92	1527
67.26	1517
67.6	1790
67.94	1773
68.28	1679
68.62	1916
68.96	1718
69.3	1655
69.64	1678
69.98	1503
70.32	1413
70.66	1404
71	1464
71.34	1497
71.68	1449
72.02	1467
72.36	1493
72.7	1443
73.04	1470
73.38	1584
73.72	1483
74.06	1610
74.4	1596
74.74	1543
75.08	1504
75.42	1486
75.76	1427
76.1	1572
76.44	1523
76.78	1481
77.12	1454
77.46	1493
77.8	1436
78.14	1523
78.48	1501
78.82	1346
79.16	1321
79.5	1293
79.84	1344
80.18	1339
80.52	1296
80.86	1348
81.2	1344
81.54	1345
81.88	1419
82.22	1353
82.56	1329
82.9	1363
83.24	1297
83.58	1336
83.92	1345
84.26	1370
84.6	1341
84.94	1426
85.28	1419
85.62	1449
85.96	1476
86.3	1378
86.64	1347
86.98	1453
87.32	1398
87.66	1416
88	1480
88.34	1420
88.68	1427
89.02	1432
89.36	1349
89.7	1364
90.04	1406
90.38	1270
90.72	1393
91.06	1387
91.4	1340
91.74	1422
92.08	1426
92.42	1421
92.76	1426
93.1	1430
93.44	1443
93.78	1478
94.12	1354
94.46	1343
94.8	1311
95.14	1439
95.48	1354
95.82	1354
96.16	1421
96.5	1460
96.84	1470
97.18	1415
97.52	1413
97.86	1456
98.2	1382
98.54	1430
98.88	1378
99.22	1393
99.56	1454
99.9	1420
100	1437