File: xrd/previousNaming/ZnOCuCl2_550.xy
5.000	2637.500
5.300	2458.333
5.600	2300.000
5.900	2300.000
6.200	2270.833
6.500	2354.167
6.800	2270.833
7.100	2429.167
7.400	2187.500
7.700	2245.833
8.000	2225.000
8.300	2250.000
8.600	2287.500
8.900	2204.167
9.200	2316.667
9.500	2216.667
9.800	2350.000
10.100	2312.500
10.400	2458.333
10.700	2470.833
11.000	2508.333
11.300	2637.500
11.600	2554.167
11.900	2604.167
12.200	2616.667
12.500	2666.667
12.800	2741.667
13.100	2604.167
13.400	2687.500
13.700	2666.667
14.000	2583.333
14.300	2787.500
14.600	2933.333
14.900	2887.500
15.200	5866.667
15.500	3183.333
15.800	2833.333
16.100	2908.333
16.400	2912.500
16.700	3033.333
17.000	2904.167
17.300	2866.667
17.600	3012.500
17.900	3000.000
18.200	3125.000
18.500	3500.000
18.800	6750.000
19.100	5608.333
19.400	3408.333
19.700	3245.833
20.000	3175.000
20.300	3187.500
20.600	3258.333
20.900	3170.833
21.200	3120.833
21.500	3341.667
21.800	3304.167
22.100	3254.167
22.400	3320.833
22.700	3645.833
23.000	5800.000
23.300	7104.167
23.600	12829.167
23.900	12737.500
24.200	4416.667
24.500	3937.500
24.800	3812.500
25.100	4170.833
25.400	5991.667
25.700	10612.500
26.000	4229.167
26.300	3629.167
26.600	3670.833
26.900	3812.500
27.200	3579.167
27.500	3650.000
27.800	3704.167
28.100	3795.833
28.400	4091.667
28.700	6770.833
29.000	12758.333
29.300	8954.167
29.600	6125.000
29.900	6720.833
30.200	18816.667
30.500	6587.500
30.800	8437.500
31.100	10812.500
31.400	16700.000
31.700	11762.500
32.000	7258.333
32.300	4920.833
32.600	4462.500
32.900	3741.667
33.200	3945.833
33.500	3637.500
33.800	3816.667
34.100	4000.000
34.400	4250.000
34.700	4704.167
35.000	5233.333
35.300	11620.833
35.600	16683.333
35.900	9345.833
36.200	7750.000
36.500	9895.833
36.800	7500.000
37.100	4245.833
37.400	4254.167
37.700	4170.833
38.000	4770.833
38.300	6191.667
38.600	23837.500
38.900	8570.833
39.200	4662.500
39.500	4170.833
39.800	4662.500
40.100	5300.000
40.400	4537.500
40.700	4216.667
41.000	7929.167
41.300	4695.833
41.600	3958.333
41.900	4191.667
42.200	4895.833
42.500	5670.833
42.800	5700.000
43.100	5116.667
43.400	4970.833
43.700	4545.833
44.000	4304.167
44.300	4204.167
44.600	4933.333
44.900	5679.167
45.200	5691.667
45.500	4791.667
45.800	4608.333
46.100	4100.000
46.400	4095.833
46.700	4191.667
47.000	4604.167
47.300	5241.667
47.600	5250.000
47.900	4566.667
48.200	5008.333
48.500	5516.667
48.800	6579.167
49.100	6929.167
49.400	5716.667
49.700	4929.167
50.000	4679.167
50.300	4879.167
50.600	4891.667
50.900	4604.167
51.200	4558.333
51.500	4491.667
51.800	5462.500
52.100	5525.000
52.400	5604.167
52.700	5437.500
53.000	6441.667
53.300	12258.333
53.600	8070.833
53.900	4804.167
54.200	4408.333
54.500	4179.167
54.800	4733.333
55.100	6012.500
55.400	5975.000
55.700	4904.167
56.000	5487.500
56.300	5795.833
56.600	5633.333
56.900	4750.000
57.200	4291.667
57.500	4204.167
57.800	4041.667
58.100	4579.167
58.400	5208.333
58.700	4412.500
59.000	4612.500
59.300	4462.500
59.600	4187.500
59.900	4116.667
60.200	4370.833
60.500	4616.667
60.800	5720.833
61.100	5416.667
61.400	6520.833
61.700	5904.167
62.000	5258.333
62.300	6016.667
62.600	7716.667
62.900	6520.833
63.200	5616.667
63.500	5379.167
63.800	5691.667
64.100	6170.833
64.400	5258.333
64.700	4875.000
65.000	5170.833
65.300	6075.000
65.600	6800.000
65.900	7866.667
66.200	9016.667
66.500	7129.167
66.800	5420.833
67.100	5279.167
67.400	5287.500
67.700	5679.167
68.000	9579.167
68.300	5954.167
68.600	4116.667
68.900	4179.167
69.200	4337.500
69.500	4150.000
69.800	4158.333
70.100	4383.333
70.400	4212.500
70.700	4212.500
71.000	3883.333
71.300	4154.167
71.600	4012.500
71.900	3966.667
72.200	4379.167
72.500	4654.167
72.800	4633.333
73.100	4958.333
73.400	4329.167
73.700	4179.167
74.000	4345.833
74.300	4437.500
74.600	5016.667
74.900	5379.167
75.200	5679.167
75.500	4641.667
75.800	4291.667
76.100	4258.333
76.400	4200.000
76.700	4295.833
77.000	4345.833
77.300	4462.500
77.600	4337.500
77.900	4612.500
78.200	4408.333
78.500	4400.000
78.800	4133.333
79.100	3883.333
79.400	3920.833
79.700	3900.000
80.000	4341.667
80.300	4241.667
80.600	3925.000
80.900	3966.667
81.200	4045.833
81.500	4087.500
81.800	4441.667
82.100	4379.167
82.400	4641.667
82.700	4900.000
83.000	4883.333
83.300	4575.000
83.600	4741.667
83.900	4600.000
84.200	4716.667
84.500	4812.500
84.800	4633.333
85.100	4375.000
85.400	4183.333
85.700	4262.500
86.000	4337.500
86.300	4370.833
86.600	4387.500
86.900	4491.667
87.200	4583.333
87.500	4387.500
87.800	4375.000
88.100	4479.167
88.400	4220.833
88.700	4704.167
89.000	4883.333
89.300	4883.333
89.600	5550.000
89.900	5200.000
90.000	5270.833