File: xrd/previousNaming/ZnOFeCl3_550.xy
5.000	5875.000
5.300	5550.000
5.600	5483.333
5.900	5454.167
6.200	5433.333
6.500	5220.833
6.800	5583.333
7.100	5512.500
7.400	5383.333
7.700	5583.333
8.000	5216.667
8.300	5525.000
8.600	5408.333
8.900	5395.833
9.200	5429.167
9.500	5300.000
9.800	5666.667
10.100	5754.167
10.400	6025.000
10.700	5870.833
11.000	6062.500
11.300	6250.000
11.600	6316.667
11.900	6470.833
12.200	6658.333
12.500	6870.833
12.800	6691.667
13.100	7004.167
13.400	6875.000
13.700	6950.000
14.000	6858.333
14.300	7104.167
14.600	7300.000
14.900	7112.500
15.200	7216.667
15.500	7287.500
15.800	7362.500
16.100	7450.000
16.400	7520.833
16.700	7566.667
17.000	7600.000
17.300	7637.500
17.600	8004.167
17.900	7908.333
18.200	8087.500
18.500	7875.000
18.800	8129.167
19.100	8125.000
19.400	8145.833
19.700	8387.500
20.000	8300.000
20.300	8491.667
20.600	8162.500
20.900	8304.167
21.200	8608.333
21.500	8633.333
21.800	8741.667
22.100	8741.667
22.400	8391.667
22.700	8837.500
23.000	8712.500
23.300	8825.000
23.600	8933.333
23.900	9720.833
24.200	10741.667
24.500	9025.000
24.800	9300.000
25.100	8870.833
25.400	8941.667
25.700	9037.500
26.000	9000.000
26.300	9066.667
26.600	9262.500
26.900	9108.333
27.200	8879.167
27.500	9075.000
27.800	9125.000
28.100	9145.833
28.400	9016.667
28.700	9225.000
29.000	9154.167
29.300	9258.333
29.600	9470.833
29.900	10216.667
30.200	9025.000
30.500	9245.833
30.800	9191.667
31.100	9216.667
31.400	9395.833
31.700	22716.667
32.000	9583.333
32.300	9416.667
32.600	9520.833
32.900	12495.833
33.200	17187.500
33.500	9658.333
33.800	9320.833
34.100	9554.167
34.400	9904.167
34.700	9604.167
35.000	10279.167
35.300	12566.667
35.600	20395.833
35.900	10062.500
36.200	11995.833
36.500	9275.000
36.800	9625.000
37.100	9170.833
37.400	9108.333
37.700	9416.667
38.000	9150.000
38.300	9233.333
38.600	9166.667
38.900	9262.500
39.200	9587.500
39.500	9295.833
39.800	9475.000
40.100	9204.167
40.400	9270.833
40.700	10891.667
41.000	10400.000
41.300	9525.000
41.600	9337.500
41.900	9420.833
42.200	9183.333
42.500	9220.833
42.800	9704.167
43.100	9270.833
43.400	9408.333
43.700	9145.833
44.000	9083.333
44.300	9354.167
44.600	9291.667
44.900	8987.500
45.200	9320.833
45.500	9208.333
45.800	8916.667
46.100	8983.333
46.400	9208.333
46.700	9179.167
47.000	9033.333
47.300	9183.333
47.600	9608.333
47.900	9337.500
48.200	9125.000
48.500	9458.333
48.800	9433.333
49.100	9566.667
49.400	13820.833
49.700	10033.333
50.000	9470.833
50.300	9312.500
50.600	9037.500
50.900	9200.000
51.200	8920.833
51.500	9125.000
51.800	9341.667
52.100	9150.000
52.400	9362.500
52.700	9291.667
53.000	9591.667
53.300	9154.167
53.600	9537.500
53.900	12612.500
54.200	11404.167
54.500	9666.667
54.800	9316.667
55.100	9450.000
55.400	8900.000
55.700	9300.000
56.000	9254.167
56.300	9408.333
56.600	10966.667
56.900	9416.667
57.200	9262.500
57.500	10266.667
57.800	9570.833
58.100	9208.333
58.400	9045.833
58.700	9012.500
59.000	8966.667
59.300	9295.833
59.600	9066.667
59.900	9058.333
60.200	8983.333
60.500	9137.500
60.800	9166.667
61.100	9129.167
61.400	9025.000
61.700	9404.167
62.000	10437.500
62.300	12775.000
62.600	10750.000
62.900	9825.000
63.200	9304.167
63.500	9425.000
63.800	10870.833
64.100	11745.833
64.400	9720.833
64.700	9095.833
65.000	9141.667
65.300	9483.333
65.600	9270.833
65.900	9187.500
66.200	9304.167
66.500	9391.667
66.800	9029.167
67.100	9237.500
67.400	9070.833
67.700	9233.333
68.000	9216.667
68.300	9150.000
68.600	9245.833
68.900	9245.833
69.200	9320.833
69.500	9441.667
69.800	9195.833
70.100	9304.167
70.400	8991.667
70.700	9025.000
71.000	9133.333
71.300	9345.833
71.600	9137.500
71.900	9937.500
72.200	9629.167
72.500	9362.500
72.800	9245.833
73.100	9325.000
73.400	9270.833
73.700	9212.500
74.000	9204.167
74.300	9062.500
74.600	9375.000
74.900	9375.000
75.200	9895.833
75.500	9670.833
75.800	9095.833
76.100	9075.000
76.400	9066.667
76.700	9116.667
77.000	9112.500
77.300	9100.000
77.600	9512.500
77.900	9195.833
78.200	9175.000
78.500	9150.000
78.800	9279.167
79.100	8962.500
79.400	9304.167
79.700	9166.667
80.000	9275.000
80.300	9433.333
80.600	9612.500
80.900	9675.000
81.200	8945.833
81.500	8687.500
81.800	9175.000
82.100	9154.167
82.400	9216.667
82.700	9337.500
83.000	9458.333
83.300	9041.667
83.600	9133.333
83.900	8883.333
84.200	9120.833
84.500	9212.500
84.800	9666.667
85.100	9933.333
85.400	9429.167
85.700	9395.833
86.000	9175.000
86.300	8858.333
86.600	9350.000
86.900	9433.333
87.200	9258.333
87.500	8970.833
87.800	9275.000
88.100	9100.000
88.400	9700.000
88.700	9612.500
89.000	9208.333
89.300	8733.333
89.600	9129.167
89.900	9191.667
90.000	8983.333