File: xrd/raw/CuOCuCl2.asc
*TYPE		=  Raw
*CLASS		=  ASCII CLASS
*SAMPLE		=  CuOCuCl2
*COMMENT	=
*FNAME		=  CuOCuCl2_Theta_2-Theta.asc
*DATE		=  03-Mar-17 15:36

*GROUP_COUNT	=  1
*GONIO		=  MiniFlex 300/600 +, 150
*ATTACHMENT	=  ASC-6
*ASC		=  0, 0, 0.000000, 0.000000
*FILTER		=  K-beta(x2)
*C_MONOCHRO	=  None, 0.000000
*SLIT_NAME	=  0, IHS
*SLIT_NAME	=  1, DS +
*SLIT_NAME	=  2, SS
*SLIT_NAME	=  3, RS
*COUNTER	=  D/teX Ultra, 0
*POS_FORMAT	=  0
*SCAN_AXIS	=  2theta/theta
*MEAS_MODE	=  Continuous Scanning
*TARGET		=  29
*XRAY_CHAR	=  K-ALPHA
*WAVE_LENGTH1	=  1.54059
*WAVE_LENGTH2	=  1.54441
*THICKNESS	=  0, 0.000000
*MU		=  0, 0.000000
*SCAN_MODE	=  2theta/theta
*SPEED_DIM	=  sec./step
*XUNIT		=  deg.
*YUNIT		=  counts
*SCALE_MODE	=  1
*REP_COUNT	=  0
*SE_COUNT	=  0
*STD_MATERIAL	=  Unknown, Unknown, 0.000000, 0.000000, 0.000000, 0.000000, 0.000000, 0.000000
*LATT_CONS	=  0, Unknown, Unknown, 0.000000, 0.000000, 0.000000, 0.000000, 0.000000, 0.000000
*SEC_COUNT	=  1
*TSPEC_SIZE	=  0
*EXTRA_SIZE	=  0
*MEMO		=

*BEGIN
*GROUP		=  0
*START		=  5
*STOP		=  90
*STEP		=  0.02
*OFFSET		=  0.000000
*SPEED		=  0.24
*SLIT_SPEC	=  0, 10.0mm, 10, 0.000000
*SLIT_SPEC	=  1, 0.625deg, 0.625, 0.000000
*SLIT_SPEC	=  2, 13.0mm, 13, 0.000000
*SLIT_SPEC	=  3, 13.0mm, 13, 0.000000
*KV		=  40
*MA		=  15
*LOW		=  0.000000
*HIGH		=  0.000000
*CTEMPER	=  0, 0.000000
*CTEMPER	=  1, 0.000000
*CTEMPER	=  2, 0.000000
*PAREX		=  0, 0.000000
*PAREX		=  1, 0.000000
*PAREX		=  2, 0.000000
*PAREX		=  3, 0.000000
*PAREX		=  4, 0.000000
*PAREX		=  5, 0.000000
*PAREX		=  6, 0.000000
*PAREX		=  7, 0.000000
*PAREX		=  8, 0.000000
*PAREX		=  9, 0.000000
*PAREX		=  10, 0.000000
*PAREX		=  11, 0.000000
*PAREX		=  12, 0.000000
*PAREX		=  13, 0.000000
*PAREX		=  14, 0.000000
*PAREX		=  15, 0.000000
*FULL_SCALE	=  201095
*INDEX		=  0, 0, 0
*COUNT		=  4251
345, 331, 335, 338
333, 302, 280, 267
323, 313, 317, 323
302, 301, 279, 290
300, 292, 284, 272
255, 268, 270, 264
274, 264, 259, 268
261, 235, 254, 280
236, 259, 270, 257
269, 257, 237, 244
263, 266, 265, 261
276, 260, 252, 238
254, 264, 274, 255
272, 255, 259, 281
259, 272, 270, 284
277, 289, 277, 272
279, 288, 272, 269
309, 287, 277, 294
285, 290, 280, 288
277, 277, 276, 272
280, 289, 290, 278
254, 240, 246, 264
282, 252, 268, 278
274, 268, 257, 257
249, 251, 259, 255
241, 239, 272, 268
244, 234, 251, 253
249, 258, 247, 254
223, 236, 240, 219
235, 219, 226, 241
224, 224, 258, 247
227, 235, 241, 229
230, 233, 232, 220
222, 240, 239, 219
217, 230, 239, 226
215, 216, 211, 221
222, 209, 222, 208
210, 218, 231, 239
203, 227, 243, 242
220, 209, 202, 204
206, 200, 216, 211
206, 199, 198, 217
209, 205, 200, 202
212, 199, 214, 211
242, 252, 249, 242
179, 190, 191, 195
202, 207, 200, 199
206, 205, 198, 198
204, 203, 200, 208
198, 204, 198, 198
183, 161, 169, 180
182, 194, 199, 194
196, 199, 187, 173
186, 192, 193, 196
199, 191, 202, 208
189, 196, 187, 177
177, 176, 183, 187
184, 191, 196, 203
184, 185, 201, 207
187, 191, 216, 225
193, 203, 188, 194
176, 170, 164, 175
173, 172, 170, 177
184, 176, 174, 179
204, 188, 181, 186
197, 205, 194, 177
194, 180, 175, 183
174, 185, 172, 169
187, 193, 179, 166
185, 192, 195, 182
197, 187, 193, 205
176, 191, 185, 174
189, 168, 158, 165
200, 210, 211, 201
214, 206, 212, 216
210, 210, 207, 204
198, 206, 216, 213
200, 199, 200, 200
192, 192, 202, 205
253, 259, 251, 244
241, 257, 262, 256
361, 359, 348, 364
486, 521, 547, 559
1461, 1770, 2142, 2624
18397, 15135, 12052, 9029
683, 614, 565, 556
370, 370, 376, 377
322, 316, 296, 277
304, 285, 277, 295
320, 330, 332, 319
403, 404, 402, 424
651, 719, 789, 849
15879, 17479, 17805, 16966
902, 811, 753, 718
530, 517, 523, 533
572, 576, 605, 618
854, 877, 878, 883
2309, 2718, 3355, 4235
32424, 27952, 23625, 19043
1211, 1128, 1034, 946
500, 474, 466, 478
406, 397, 389, 367
358, 335, 327, 323
319, 319, 295, 286
304, 300, 298, 314
366, 367, 402, 444
347, 344, 337, 325
244, 243, 248, 245
243, 239, 230, 227
231, 235, 233, 226
225, 215, 212, 226
227, 227, 221, 217
206, 205, 208, 195
214, 204, 217, 217
188, 192, 203, 204
197, 203, 180, 171
194, 181, 175, 174
186, 174, 171, 182
169, 178, 184, 191
186, 199, 209, 228
194, 191, 190, 181
179, 183, 164, 176
178, 170, 172, 157
159, 160, 157, 169
166, 164, 167, 171
178, 180, 174, 188
182, 188, 169, 174
169, 159, 142, 155
174, 181, 185, 179
186, 194, 201, 205
196, 190, 185, 195
228, 224, 237, 248
456, 497, 547, 621
7423, 7882, 7858, 7357
817, 703, 604, 538
242, 241, 238, 239
196, 208, 207, 209
229, 227, 232, 232
180, 175, 183, 188
168, 157, 146, 152
157, 158, 158, 161
163, 168, 169, 158
168, 164, 158, 160
174, 171, 171, 173
166, 154, 145, 153
157, 160, 145, 153
155, 160, 164, 159
163, 169, 169, 164
148, 161, 155, 156
152, 171, 160, 159
166, 170, 181, 184
170, 166, 163, 169
161, 156, 171, 171
161, 156, 158, 170
151, 155, 157, 150
177, 184, 196, 200
203, 201, 197, 188
203, 214, 220, 208
240, 228, 226, 237
267, 287, 266, 261
491, 532, 586, 635
5087, 6372, 7768, 9158
4195, 3344, 2618, 2007
411, 382, 371, 356
241, 242, 236, 237
213, 233, 247, 230
194, 204, 208, 210
197, 210, 205, 201
189, 189, 197, 202
180, 182, 178, 194
181, 193, 187, 172
173, 172, 186, 200
165, 180, 188, 184
185, 195, 197, 189
209, 210, 206, 201
202, 203, 196, 204
231, 225, 207, 210
242, 242, 241, 266
252, 251, 247, 243
310, 343, 350, 366
965, 1076, 1188, 1385
8345, 7613, 6888, 6397
1100, 975, 838, 717
325, 324, 310, 293
264, 248, 239, 240
224, 212, 213, 232
211, 222, 197, 202
198, 197, 184, 199
188, 213, 211, 211
235, 222, 219, 230
265, 253, 255, 262
357, 377, 384, 419
1437, 1274, 1192, 1172
387, 365, 345, 326
287, 292, 287, 271
380, 388, 417, 414
1094, 1247, 1499, 1753
5680, 5195, 4851, 4712
961, 807, 744, 653
441, 472, 465, 453
2099, 2438, 2836, 3267
2054, 1837, 1660, 1409
319, 299, 297, 273
233, 208, 192, 217
190, 204, 190, 197
197, 208, 220, 221
178, 191, 187, 196
180, 188, 184, 188
184, 172, 163, 143
175, 182, 162, 170
202, 212, 182, 206
550, 643, 690, 693
378, 358, 341, 291
177, 180, 186, 174
148, 152, 166, 164
172, 178, 159, 165
165, 171, 153, 145
161, 161, 175, 168
155, 152, 158, 168
166, 160, 164, 177
181, 173, 155, 155
136, 153, 155, 153
143, 158, 157, 153
186, 163, 174, 176
281, 297, 304, 337
1150, 1025, 924, 899
418, 333, 307, 283
174, 152, 167, 162
124, 150, 129, 140
149, 138, 131, 132
142, 151, 152, 144
126, 145, 145, 152
150, 146, 138, 136
140, 146, 142, 143
134, 149, 143, 131
132, 145, 135, 138
156, 147, 150, 137
151, 158, 158, 157
237, 237, 247, 258
537, 469, 429, 407
228, 197, 214, 197
154, 154, 155, 147
134, 146, 131, 136
135, 126, 135, 137
133, 145, 141, 128
128, 125, 131, 132
119, 147, 143, 143
128, 130, 141, 138
126, 135, 127, 121
124, 132, 140, 121
105, 127, 123, 138
134, 126, 129, 124
120, 112, 119, 134
149, 154, 127, 134
125, 131, 139, 134
138, 138, 141, 122
140, 129, 148, 151
152, 127, 141, 138
132, 130, 138, 133
154, 136, 131, 124
140, 142, 125, 143
147, 168, 152, 160
169, 174, 175, 191
261, 300, 287, 304
1090, 1218, 1365, 1537
1214, 1224, 1260, 1305
1219, 1219, 1219
*END

*EOF