File: xrd/raw/ZnOCuCl2.asc
*TYPE		=  Raw
*CLASS		=  ASCII CLASS
*SAMPLE		=  ZnOCuCl2
*COMMENT	=
*FNAME		=  ZnOCuCl2_Theta_2-Theta.asc
*DATE		=  03-Mar-17 15:18

*GROUP_COUNT	=  1
*GONIO		=  MiniFlex 300/600 +, 150
*ATTACHMENT	=  ASC-6
*ASC		=  0, 0, 0.000000, 0.000000
*FILTER		=  K-beta(x2)
*C_MONOCHRO	=  None, 0.000000
*SLIT_NAME	=  0, IHS
*SLIT_NAME	=  1, DS +
*SLIT_NAME	=  2, SS
*SLIT_NAME	=  3, RS
*COUNTER	=  D/teX Ultra, 0
*POS_FORMAT	=  0
*SCAN_AXIS	=  2theta/theta
*MEAS_MODE	=  Continuous Scanning
*TARGET		=  29
*XRAY_CHAR	=  K-ALPHA
*WAVE_LENGTH1	=  1.54059
*WAVE_LENGTH2	=  1.54441
*THICKNESS	=  0, 0.000000
*MU		=  0, 0.000000
*SCAN_MODE	=  2theta/theta
*SPEED_DIM	=  sec./step
*XUNIT		=  deg.
*YUNIT		=  counts
*SCALE_MODE	=  1
*REP_COUNT	=  0
*SE_COUNT	=  0
*STD_MATERIAL	=  Unknown, Unknown, 0.000000, 0.000000, 0.000000, 0.000000, 0.000000, 0.000000
*LATT_CONS	=  0, Unknown, Unknown, 0.000000, 0.000000, 0.000000, 0.000000, 0.000000, 0.000000
*SEC_COUNT	=  1
*TSPEC_SIZE	=  0
*EXTRA_SIZE	=  0
*MEMO		=

*BEGIN
*GROUP		=  0
*START		=  5
*STOP		=  90
*STEP		=  0.02
*OFFSET		=  0.000000
*SPEED		=  0.24
*SLIT_SPEC	=  0, 10.0mm, 10, 0.000000
*SLIT_SPEC	=  1, 0.625deg, 0.625, 0.000000
*SLIT_SPEC	=  2, 13.0mm, 13, 0.000000
*SLIT_SPEC	=  3, 13.0mm, 13, 0.000000
*KV		=  40
*MA		=  15
*LOW		=  0.000000
*HIGH		=  0.000000
*CTEMPER	=  0, 0.000000
*CTEMPER	=  1, 0.000000
*CTEMPER	=  2, 0.000000
*PAREX		=  0, 0.000000
*PAREX		=  1, 0.000000
*PAREX		=  2, 0.000000
*PAREX		=  3, 0.000000
*PAREX		=  4, 0.000000
*PAREX		=  5, 0.000000
*PAREX		=  6, 0.000000
*PAREX		=  7, 0.000000
*PAREX		=  8, 0.000000
*PAREX		=  9, 0.000000
*PAREX		=  10, 0.000000
*PAREX		=  11, 0.000000
*PAREX		=  12, 0.000000
*PAREX		=  13, 0.000000
*PAREX		=  14, 0.000000
*PAREX		=  15, 0.000000
*FULL_SCALE	=  41535
*INDEX		=  0, 0, 0
*COUNT		=  4251
633, 597, 615, 638
602, 629, 636, 644
611, 599, 612, 603
594, 592, 610, 603
538, 554, 572, 573
560, 569, 586, 588
580, 573, 552, 554
548, 553, 540, 531
578, 551, 574, 575
544, 544, 587, 568
565, 570, 545, 543
573, 561, 536, 519
563, 579, 565, 529
558, 561, 556, 541
571, 532, 540, 565
564, 586, 572, 576
555, 557, 563, 567
583, 596, 564, 570
585, 597, 596, 614
623, 609, 589, 606
592, 608, 620, 617
640, 626, 621, 609
608, 592, 605, 613
630, 634, 647, 647
647, 679, 672, 628
667, 655, 664, 658
631, 639, 660, 670
614, 642, 634, 640
649, 631, 620, 642
665, 669, 679, 656
704, 681, 698, 689
726, 726, 719, 713
1755, 1765, 1741, 1697
701, 697, 734, 719
695, 689, 709, 711
720, 723, 685, 669
664, 666, 683, 691
689, 708, 699, 703
717, 701, 717, 705
728, 733, 728, 721
727, 715, 691, 681
699, 687, 699, 739
775, 781, 818, 840
1189, 1350, 1620, 1981
1608, 1346, 1164, 1052
818, 776, 762, 742
767, 756, 757, 787
755, 771, 769, 782
744, 759, 771, 745
771, 774, 742, 777
792, 780, 737, 730
786, 770, 741, 779
792, 773, 777, 783
798, 775, 780, 776
761, 797, 816, 826
819, 808, 837, 870
1108, 1125, 1214, 1309
1750, 1729, 1723, 1705
3298, 3222, 3079, 2923
2768, 3057, 3256, 3241
1060, 1021, 1001, 1007
928, 903, 895, 922
956, 967, 942, 958
1048, 1061, 1100, 1130
1822, 1913, 2007, 2041
1861, 1704, 1589, 1437
915, 900, 921, 957
878, 854, 875, 901
916, 905, 932, 971
865, 865, 869, 886
860, 846, 872, 877
879, 875, 872, 875
914, 923, 918, 911
986, 995, 982, 1013
1533, 1625, 1726, 1838
3062, 3060, 3009, 2975
2105, 2127, 2082, 1961
1492, 1474, 1469, 1444
1898, 2225, 2584, 2937
3150, 2840, 2590, 2385
1489, 1506, 1477, 1495
2751, 2766, 2751, 2725
3061, 3185, 3342, 3523
2730, 2652, 2621, 2605
2702, 2518, 2325, 2160
1099, 1097, 1102, 1127
1402, 1317, 1175, 1094
931, 941, 921, 898
906, 943, 947, 928
890, 873, 863, 897
916, 906, 921, 961
958, 951, 939, 947
1008, 1034, 1050, 1058
1161, 1176, 1199, 1183
1370, 1369, 1437, 1457
5617, 6746, 7830, 8307
2631, 2665, 2642, 2583
1680, 1642, 1650, 1643
2670, 2618, 2540, 2429
3238, 3021, 2791, 2493
1049, 1035, 1062, 1050
996, 1013, 997, 986
1016, 1031, 1022, 1001
1114, 1126, 1145, 1171
1455, 1486, 1578, 1660
5721, 6074, 6146, 5987
1895, 1824, 1754, 1636
1072, 1091, 1071, 1059
1015, 1042, 1080, 1098
1164, 1156, 1178, 1246
1237, 1262, 1265, 1203
1039, 1023, 1033, 1075
1128, 1160, 1200, 1295
1603, 1562, 1447, 1300
1013, 980, 960, 949
969, 976, 1011, 1020
1107, 1098, 1088, 1133
1254, 1314, 1345, 1361
1464, 1412, 1368, 1347
1192, 1228, 1209, 1208
1193, 1175, 1160, 1127
1051, 1029, 1010, 1037
952, 956, 969, 991
951, 1001, 1064, 1028
1207, 1197, 1238, 1265
1518, 1547, 1548, 1575
1184, 1135, 1132, 1127
1199, 1153, 1156, 1130
1004, 1001, 997, 987
977, 998, 992, 978
963, 970, 983, 996
1097, 1077, 1097, 1113
1244, 1245, 1250, 1258
1228, 1227, 1260, 1266
1090, 1096, 1070, 1068
1202, 1270, 1302, 1288
1361, 1388, 1404, 1456
1516, 1467, 1470, 1436
1653, 1647, 1620, 1587
1297, 1268, 1247, 1229
1132, 1127, 1140, 1127
1133, 1127, 1130, 1119
1188, 1192, 1181, 1173
1156, 1121, 1125, 1126
1103, 1087, 1076, 1093
1078, 1075, 1101, 1111
1200, 1250, 1268, 1288
1328, 1298, 1298, 1326
1374, 1376, 1345, 1319
1288, 1305, 1319, 1282
1546, 1594, 1648, 1731
3050, 3164, 3180, 3223
1709, 1611, 1542, 1463
1140, 1137, 1130, 1104
999, 986, 984, 995
1045, 1032, 1057, 1035
1211, 1262, 1284, 1278
1525, 1501, 1535, 1542
1200, 1190, 1198, 1200
1249, 1285, 1320, 1328
1405, 1431, 1405, 1413
1310, 1293, 1304, 1337
1244, 1208, 1162, 1140
1050, 1063, 1030, 1014
988, 1009, 993, 971
970, 955, 958, 951
1123, 1114, 1161, 1203
1215, 1215, 1166, 1138
1067, 1064, 1070, 1069
1112, 1130, 1101, 1098
1033, 1066, 1068, 1069
1014, 1036, 1066, 1050
1011, 1035, 1015, 990
1062, 1061, 1053, 1072
1289, 1318, 1344, 1380
1322, 1308, 1338, 1297
1313, 1318, 1424, 1490
1505, 1458, 1464, 1417
1299, 1269, 1262, 1306
1390, 1444, 1492, 1480
1852, 1871, 1825, 1864
1494, 1448, 1452, 1446
1403, 1393, 1357, 1368
1240, 1284, 1260, 1272
1574, 1532, 1517, 1546
1464, 1425, 1436, 1350
1182, 1163, 1174, 1171
1173, 1205, 1171, 1188
1453, 1445, 1458, 1463
1413, 1441, 1528, 1516
1857, 1861, 1864, 1870
2129, 2172, 2233, 2216
1809, 1752, 1720, 1711
1298, 1311, 1301, 1300
1277, 1267, 1266, 1253
1269, 1242, 1224, 1237
1436, 1427, 1462, 1496
2234, 2128, 2048, 1924
1159, 1164, 1163, 1140
1064, 1030, 1004, 1060
976, 1015, 1048, 996
1000, 1007, 1014, 983
1043, 1025, 989, 1042
1013, 1039, 1016, 1067
1041, 1019, 1034, 1054
980, 981, 941, 995
986, 1001, 969, 909
933, 971, 978, 997
979, 962, 963, 930
924, 952, 956, 938
1051, 1043, 1070, 1097
1108, 1071, 1079, 1067
1107, 1175, 1103, 1129
1134, 1155, 1100, 1109
1083, 1034, 1009, 1007
977, 1002, 1052, 1060
1046, 1058, 1025, 1048
1113, 1118, 1152, 1151
1158, 1206, 1189, 1247
1388, 1347, 1452, 1455
1225, 1221, 1176, 1166
1029, 995, 1046, 1066
984, 995, 967, 1022
1024, 1059, 1008, 1045
1043, 1031, 1020, 1011
1043, 1039, 986, 1020
1051, 1022, 977, 997
1058, 1002, 1023, 1024
1116, 1077, 1082, 1136
1118, 1072, 1104, 1060
1014, 1030, 1057, 988
987, 1007, 1006, 985
921, 937, 971, 956
1001, 958, 932, 950
959, 988, 996, 992
1020, 1042, 1036, 1057
980, 989, 1023, 980
931, 944, 925, 952
949, 945, 971, 1004
917, 981, 1001, 1000
1066, 1077, 1040, 1035
1018, 1043, 1034, 1057
1083, 1122, 1108, 1089
1224, 1192, 1223, 1162
1163, 1113, 1145, 1093
1082, 1097, 1091, 1140
1133, 1101, 1148, 1157
1111, 1100, 1116, 1145
1171, 1108, 1102, 1068
1154, 1162, 1142, 1143
1119, 1162, 1111, 1076
1033, 1031, 1044, 1013
1004, 1005, 1109, 1023
1061, 1011, 1041, 1032
1052, 1049, 1063, 1029
1053, 1074, 1096, 1065
1046, 1074, 1073, 1070
992, 1055, 1069, 1064
1053, 1023, 1050, 983
993, 1004, 1057, 1047
1075, 1016, 1011, 1051
1025, 1083, 1055, 1038
1088, 1136, 1154, 1161
1144, 1175, 1196, 1214
1280, 1247, 1239, 1269
1287, 1318, 1347, 1259
1265, 1265, 1265
*END

*EOF