File: xrd/raw/ZnOFeCl3.asc
*TYPE		=  Raw
*CLASS		=  ASCII CLASS
*SAMPLE		=  ZnOFeCl3
*COMMENT	=
*FNAME		=  ZnOFeCl3_Theta_2-Theta.asc
*DATE		=  03-Mar-17 15:55

*GROUP_COUNT	=  1
*GONIO		=  MiniFlex 300/600 +, 150
*ATTACHMENT	=  ASC-6
*ASC		=  0, 0, 0.000000, 0.000000
*FILTER		=  K-beta(x2)
*C_MONOCHRO	=  None, 0.000000
*SLIT_NAME	=  0, IHS
*SLIT_NAME	=  1, DS +
*SLIT_NAME	=  2, SS
*SLIT_NAME	=  3, RS
*COUNTER	=  D/teX Ultra, 0
*POS_FORMAT	=  0
*SCAN_AXIS	=  2theta/theta
*MEAS_MODE	=  Continuous Scanning
*TARGET		=  29
*XRAY_CHAR	=  K-ALPHA
*WAVE_LENGTH1	=  1.54059
*WAVE_LENGTH2	=  1.54441
*THICKNESS	=  0, 0.000000
*MU		=  0, 0.000000
*SCAN_MODE	=  2theta/theta
*SPEED_DIM	=  sec./step
*XUNIT		=  deg.
*YUNIT		=  counts
*SCALE_MODE	=  1
*REP_COUNT	=  0
*SE_COUNT	=  0
*STD_MATERIAL	=  Unknown, Unknown, 0.000000, 0.000000, 0.000000, 0.000000, 0.000000, 0.000000
*LATT_CONS	=  0, Unknown, Unknown, 0.000000, 0.000000, 0.000000, 0.000000, 0.000000, 0.000000
*SEC_COUNT	=  1
*TSPEC_SIZE	=  0
*EXTRA_SIZE	=  0
*MEMO		=

*BEGIN
*GROUP		=  0
*START		=  5
*STOP		=  90
*STEP		=  0.02
*OFFSET		=  0.000000
*SPEED		=  0.24
*SLIT_SPEC	=  0, 10.0mm, 10, 0.000000
*SLIT_SPEC	=  1, 0.625deg, 0.625, 0.000000
*SLIT_SPEC	=  2, 13.0mm, 13, 0.000000
*SLIT_SPEC	=  3, 13.0mm, 13, 0.000000
*KV		=  40
*MA		=  15
*LOW		=  0.000000
*HIGH		=  0.000000
*CTEMPER	=  0, 0.000000
*CTEMPER	=  1, 0.000000
*CTEMPER	=  2, 0.000000
*PAREX		=  0, 0.000000
*PAREX		=  1, 0.000000
*PAREX		=  2, 0.000000
*PAREX		=  3, 0.000000
*PAREX		=  4, 0.000000
*PAREX		=  5, 0.000000
*PAREX		=  6, 0.000000
*PAREX		=  7, 0.000000
*PAREX		=  8, 0.000000
*PAREX		=  9, 0.000000
*PAREX		=  10, 0.000000
*PAREX		=  11, 0.000000
*PAREX		=  12, 0.000000
*PAREX		=  13, 0.000000
*PAREX		=  14, 0.000000
*PAREX		=  15, 0.000000
*FULL_SCALE	=  31120
*INDEX		=  0, 0, 0
*COUNT		=  4251
1410, 1380, 1347, 1319
1329, 1311, 1317, 1371
1341, 1298, 1297, 1317
1296, 1294, 1304, 1247
1319, 1291, 1311, 1330
1278, 1281, 1318, 1303
1275, 1282, 1283, 1263
1321, 1276, 1283, 1315
1248, 1272, 1262, 1303
1292, 1279, 1323, 1312
1293, 1267, 1305, 1286
1333, 1318, 1277, 1254
1318, 1287, 1300, 1295
1387, 1321, 1303, 1320
1298, 1272, 1266, 1288
1360, 1315, 1364, 1369
1363, 1371, 1395, 1385
1357, 1373, 1431, 1430
1465, 1447, 1428, 1427
1480, 1500, 1517, 1436
1531, 1564, 1527, 1534
1550, 1574, 1569, 1566
1509, 1498, 1540, 1555
1549, 1577, 1567, 1618
1579, 1578, 1606, 1611
1626, 1599, 1634, 1629
1632, 1671, 1704, 1654
1643, 1662, 1683, 1668
1662, 1672, 1646, 1693
1679, 1705, 1760, 1730
1752, 1691, 1700, 1706
1668, 1707, 1735, 1735
1785, 1750, 1757, 1740
1808, 1770, 1803, 1789
1821, 1864, 1843, 1833
1785, 1822, 1838, 1825
1823, 1818, 1802, 1797
1819, 1821, 1801, 1824
1866, 1897, 1872, 1862
1816, 1870, 1933, 1926
1828, 1860, 1851, 1891
2017, 2041, 1979, 1976
1900, 1911, 1940, 1890
1927, 1941, 1951, 1984
1981, 1950, 1969, 1996
1955, 1960, 1962, 1996
1975, 1953, 1947, 1946
2003, 1976, 1968, 1990
2048, 2044, 2036, 2031
2008, 2018, 2025, 2027
2077, 2055, 1984, 1965
2015, 2040, 1982, 2028
1990, 2015, 2053, 2061
2033, 2044, 2054, 2037
2037, 2049, 2078, 2049
2048, 2110, 2131, 2105
2033, 2075, 2151, 2099
2112, 2152, 2125, 2118
2073, 2107, 2144, 2170
2289, 2333, 2418, 2527
2578, 2401, 2353, 2318
2144, 2143, 2109, 2091
2167, 2132, 2107, 2144
2127, 2135, 2120, 2119
2152, 2150, 2146, 2177
2110, 2132, 2182, 2190
2175, 2175, 2171, 2176
2228, 2274, 2263, 2251
2141, 2164, 2164, 2181
2195, 2186, 2116, 2131
2179, 2179, 2170, 2162
2167, 2190, 2188, 2178
2205, 2212, 2195, 2195
2132, 2159, 2164, 2156
2157, 2214, 2236, 2158
2197, 2224, 2194, 2190
2178, 2165, 2167, 2168
2228, 2257, 2269, 2301
2339, 2321, 2286, 2253
2162, 2162, 2197, 2187
2222, 2206, 2189, 2168
2246, 2207, 2205, 2208
2304, 2282, 2211, 2210
2505, 2659, 2935, 3331
2294, 2289, 2259, 2250
2223, 2252, 2286, 2273
2282, 2300, 2312, 2284
2624, 2728, 2843, 2999
5060, 4631, 4125, 3735
2331, 2318, 2294, 2280
2237, 2249, 2271, 2259
2293, 2282, 2291, 2246
2394, 2331, 2263, 2286
2256, 2260, 2256, 2245
2718, 2848, 3058, 3238
3156, 3308, 3482, 3777
3313, 3132, 2977, 2823
2345, 2394, 2471, 2594
2288, 2260, 2264, 2302
2233, 2266, 2246, 2235
2217, 2176, 2158, 2233
2268, 2226, 2261, 2252
2212, 2195, 2273, 2260
2203, 2192, 2196, 2182
2222, 2216, 2211, 2230
2200, 2171, 2172, 2180
2250, 2262, 2273, 2256
2309, 2284, 2295, 2304
2217, 2184, 2166, 2220
2281, 2200, 2222, 2221
2211, 2202, 2225, 2251
2264, 2300, 2390, 2421
2935, 2901, 2811, 2713
2273, 2265, 2252, 2209
2216, 2212, 2226, 2272
2189, 2241, 2207, 2218
2180, 2231, 2201, 2167
2234, 2215, 2238, 2213
2288, 2307, 2329, 2332
2192, 2225, 2225, 2259
2258, 2233, 2250, 2267
2166, 2204, 2219, 2228
2258, 2220, 2183, 2212
2212, 2206, 2194, 2176
2153, 2158, 2153, 2171
2197, 2161, 2155, 2172
2229, 2174, 2156, 2205
2154, 2169, 2191, 2232
2210, 2189, 2195, 2172
2177, 2165, 2225, 2244
2204, 2216, 2167, 2151
2209, 2197, 2213, 2186
2223, 2187, 2200, 2204
2301, 2322, 2306, 2292
2252, 2241, 2224, 2221
2190, 2245, 2277, 2249
2216, 2187, 2146, 2151
2250, 2266, 2276, 2277
2487, 2489, 2453, 2503
3127, 3062, 3048, 2965
2351, 2397, 2364, 2326
2201, 2143, 2177, 2208
2200, 2208, 2205, 2154
2178, 2196, 2182, 2169
2229, 2159, 2100, 2195
2165, 2195, 2260, 2267
2208, 2241, 2224, 2199
2246, 2230, 2223, 2196
2190, 2207, 2247, 2221
2193, 2230, 2205, 2154
2302, 2307, 2308, 2321
2224, 2245, 2254, 2269
2332, 2378, 2419, 2424
3482, 3582, 3550, 3399
2499, 2508, 2531, 2461
2249, 2205, 2260, 2304
2175, 2183, 2157, 2163
2214, 2242, 2226, 2189
2205, 2228, 2236, 2239
2202, 2196, 2166, 2204
2221, 2276, 2260, 2290
3031, 2947, 2754, 2626
2244, 2263, 2233, 2260
2319, 2272, 2223, 2220
2447, 2464, 2481, 2503
2297, 2324, 2293, 2263
2164, 2165, 2250, 2268
2186, 2186, 2205, 2195
2126, 2212, 2226, 2216
2206, 2197, 2183, 2143
2167, 2228, 2254, 2214
2168, 2191, 2213, 2194
2189, 2198, 2215, 2220
2153, 2178, 2170, 2184
2172, 2213, 2169, 2176
2198, 2164, 2204, 2224
2185, 2179, 2129, 2167
2224, 2252, 2272, 2257
2399, 2427, 2505, 2542
2943, 3066, 3143, 3217
2580, 2624, 2572, 2541
2419, 2434, 2412, 2366
2242, 2270, 2284, 2281
2278, 2319, 2316, 2331
2948, 3000, 3034, 3009
2525, 2493, 2505, 2433
2250, 2252, 2274, 2221
2161, 2223, 2206, 2173
2155, 2220, 2240, 2207
2236, 2162, 2203, 2208
2224, 2221, 2220, 2205
2244, 2237, 2219, 2227
2353, 2375, 2339, 2254
2195, 2207, 2167, 2136
2268, 2217, 2188, 2246
2177, 2188, 2146, 2228
2255, 2242, 2233, 2281
2249, 2225, 2200, 2232
2208, 2205, 2192, 2192
2176, 2142, 2196, 2160
2296, 2327, 2254, 2239
2157, 2260, 2211, 2258
2241, 2286, 2280, 2228
2236, 2245, 2175, 2175
2214, 2195, 2183, 2179
2175, 2197, 2252, 2200
2180, 2210, 2206, 2213
2181, 2239, 2238, 2243
2278, 2295, 2193, 2240
2429, 2385, 2393, 2386
2311, 2274, 2326, 2298
2228, 2226, 2211, 2271
2179, 2232, 2151, 2207
2277, 2284, 2210, 2167
2272, 2246, 2230, 2181
2205, 2198, 2157, 2139
2151, 2197, 2202, 2167
2245, 2238, 2255, 2285
2279, 2176, 2189, 2187
2161, 2286, 2245, 2339
2357, 2350, 2307, 2294
2256, 2222, 2173, 2201
2178, 2196, 2188, 2178
2155, 2129, 2176, 2120
2266, 2188, 2174, 2262
2187, 2192, 2170, 2231
2201, 2143, 2229, 2237
2235, 2192, 2256, 2289
2189, 2261, 2197, 2174
2145, 2171, 2180, 2245
2213, 2227, 2130, 2244
2185, 2132, 2163, 2183
2069, 2156, 2214, 2232
2177, 2228, 2220, 2236
2177, 2228, 2282, 2251
2142, 2222, 2341, 2208
2297, 2275, 2301, 2306
2331, 2239, 2314, 2322
2195, 2152, 2147, 2166
2147, 2085, 2157, 2156
2202, 2215, 2193, 2155
2239, 2185, 2207, 2251
2197, 2320, 2246, 2177
2286, 2243, 2263, 2252
2263, 2195, 2255, 2309
2275, 2199, 2186, 2234
2198, 2143, 2178, 2150
2213, 2236, 2194, 2194
2236, 2158, 2197, 2226
2188, 2261, 2252, 2340
2373, 2245, 2303, 2258
2280, 2200, 2200, 2187
2207, 2163, 2211, 2255
2213, 2260, 2202, 2148
2162, 2126, 2185, 2260
2244, 2170, 2131, 2088
2205, 2165, 2145, 2195
2173, 2183, 2212, 2208
2148, 2177, 2218, 2234
2155, 2167, 2154, 2175
2259, 2251, 2237, 2235
2320, 2333, 2343, 2273
2334, 2266, 2275, 2319
2247, 2216, 2309, 2283
2274, 2239, 2212, 2225
2263, 2255, 2274, 2222
2156, 2156, 2156
*END

*EOF