File: xrd/CuOCuCl2.xy
5.000	3595.000
5.290	3565.000
5.580	3345.000
5.870	3160.000
6.160	3145.000
6.450	3335.000
6.740	3445.000
7.030	3255.000
7.320	3330.000
7.610	3640.000
7.900	3930.000
8.190	3490.000
8.480	3845.000
8.770	3060.000
9.060	2935.000
9.350	2950.000
9.640	2820.000
9.930	2760.000
10.220	2780.000
10.510	2905.000
10.800	2905.000
11.090	2655.000
11.380	2835.000
11.670	2745.000
11.960	2775.000
12.250	2765.000
12.540	2905.000
12.830	2990.000
13.120	2820.000
13.410	3010.000
13.700	2925.000
13.990	2960.000
14.280	2925.000
14.570	3145.000
14.860	3250.000
15.150	3225.000
15.440	3880.000
15.730	4500.000
16.020	11220.000
16.310	8090.000
16.600	4330.000
16.890	4015.000
17.180	4040.000
17.470	4690.000
17.760	4315.000
18.050	3705.000
18.340	3815.000
18.630	3945.000
18.920	3790.000
19.210	3710.000
19.500	3800.000
19.790	3770.000
20.080	3690.000
20.370	3575.000
20.660	3665.000
20.950	3850.000
21.240	3780.000
21.530	4325.000
21.820	9290.000
22.110	4685.000
22.400	4065.000
22.690	4045.000
22.980	3945.000
23.270	4095.000
23.560	4375.000
23.850	4435.000
24.140	3995.000
24.430	4070.000
24.720	4025.000
25.010	3915.000
25.300	4120.000
25.590	4035.000
25.880	4755.000
26.170	4695.000
26.460	5605.000
26.750	5205.000
27.040	4450.000
27.330	4385.000
27.620	4605.000
27.910	4490.000
28.200	4620.000
28.490	6575.000
28.780	8020.000
29.070	5100.000
29.360	4630.000
29.650	4800.000
29.940	4700.000
30.230	4690.000
30.520	5035.000
30.810	5905.000
31.100	6515.000
31.390	10520.000
31.680	7460.000
31.970	7105.000
32.260	10995.000
32.550	8450.000
32.840	6380.000
33.130	5640.000
33.420	5415.000
33.710	6245.000
34.000	10155.000
34.290	5825.000
34.580	5940.000
34.870	6450.000
35.160	7020.000
35.450	10485.000
35.740	9775.000
36.030	6625.000
36.320	5385.000
36.610	4650.000
36.900	4665.000
37.190	4565.000
37.480	4200.000
37.770	4400.000
38.060	4955.000
38.350	4625.000
38.640	4405.000
38.930	4480.000
39.220	4720.000
39.510	7270.000
39.800	7980.000
40.090	5405.000
40.380	4810.000
40.670	5275.000
40.960	5405.000
41.250	4230.000
41.540	4060.000
41.830	4055.000
42.120	4075.000
42.410	4085.000
42.700	4080.000
42.990	5070.000
43.280	4255.000
43.570	4080.000
43.860	4310.000
44.150	4180.000
44.440	4735.000
44.730	7155.000
45.020	4410.000
45.310	5040.000
45.600	4060.000
45.890	4105.000
46.180	4305.000
46.470	4195.000
46.760	4140.000
47.050	4465.000
47.340	5125.000
47.630	5525.000
47.920	6580.000
48.210	9785.000
48.500	8430.000
48.790	5975.000
49.080	6385.000
49.370	5240.000
49.660	5040.000
49.950	6075.000
50.240	5575.000
50.530	4815.000
50.820	4625.000
51.110	4575.000
51.400	4530.000
51.690	4610.000
51.980	4500.000
52.270	4325.000
52.560	4385.000
52.850	4505.000
53.140	4655.000
53.430	5160.000
53.720	4910.000
54.010	4675.000
54.300	5005.000
54.590	4615.000
54.880	4480.000
55.170	4455.000
55.460	4560.000
55.750	4500.000
56.040	4645.000
56.330	4455.000
56.620	4355.000
56.910	4310.000
57.200	5445.000
57.490	5430.000
57.780	4475.000
58.070	4140.000
58.360	4250.000
58.650	3850.000
58.940	3970.000
59.230	4250.000
59.520	4005.000
59.810	3930.000
60.100	3905.000
60.390	3880.000
60.680	3900.000
60.970	3960.000
61.260	4175.000
61.550	4390.000
61.840	4310.000
62.130	4370.000
62.420	4185.000
62.710	4170.000
63.000	4350.000
63.290	4360.000
63.580	4490.000
63.870	5080.000
64.160	5025.000
64.450	4540.000
64.740	4210.000
65.030	4180.000
65.320	4235.000
65.610	4425.000
65.900	4220.000
66.190	4055.000
66.480	3940.000
66.770	4015.000
67.060	4040.000
67.350	4045.000
67.640	4100.000
67.930	4140.000
68.220	4450.000
68.510	4940.000
68.800	4370.000
69.090	4120.000
69.380	4200.000
69.670	4065.000
69.960	3735.000
70.250	3670.000
70.540	3700.000
70.830	3695.000
71.120	3755.000
71.410	3690.000
71.700	3965.000
71.990	3825.000
72.280	4045.000
72.570	4250.000
72.860	4620.000
73.150	4990.000
73.440	4695.000
73.730	4165.000
74.020	4070.000
74.310	4085.000
74.600	4075.000
74.890	4460.000
75.180	4295.000
75.470	4490.000
75.760	4405.000
76.050	4765.000
76.340	4500.000
76.630	4320.000
76.920	4620.000
77.210	4240.000
77.500	4190.000
77.790	3855.000
78.080	3775.000
78.370	3735.000
78.660	3700.000
78.950	3590.000
79.240	3785.000
79.530	3830.000
79.820	3895.000
80.110	3830.000
80.400	3705.000
80.690	3540.000
80.980	3690.000
81.270	3680.000
81.560	3805.000
81.850	3725.000
82.140	3745.000
82.430	3595.000
82.720	3710.000
83.010	3700.000
83.300	3830.000
83.590	3845.000
83.880	4320.000
84.170	4135.000
84.460	3900.000
84.750	3770.000
85.040	4080.000
85.330	3965.000
85.620	3685.000
85.910	3915.000
86.200	3855.000
86.490	3655.000
86.780	3800.000
87.070	3855.000
87.360	3665.000
87.650	3770.000
87.940	3700.000
88.230	3770.000
88.520	3940.000
88.810	3605.000
89.100	3590.000
89.390	3695.000
89.680	3930.000
89.970	3715.000
90.000	3715.000