File: xrd/CuOGPinCuCl2.xy
5.000	2575.000
5.320	2691.667
5.640	2600.000
5.960	2512.500
6.280	2541.667
6.600	2683.333
6.920	2450.000
7.240	2520.833
7.560	2466.667
7.880	2554.167
8.200	2500.000
8.520	2508.333
8.840	2416.667
9.160	2454.167
9.480	2416.667
9.800	2395.833
10.120	2487.500
10.440	2508.333
10.760	2429.167
11.080	2508.333
11.400	2579.167
11.720	2608.333
12.040	2666.667
12.360	2600.000
12.680	2816.667
13.000	2675.000
13.320	2808.333
13.640	2970.833
13.960	2895.833
14.280	3016.667
14.600	3287.500
14.920	3316.667
15.240	3645.833
15.560	13012.500
15.880	30287.500
16.200	518679.167
16.520	19120.833
16.840	11954.167
17.160	9937.500
17.480	9050.000
17.800	7925.000
18.120	7350.000
18.440	7170.833
18.760	6504.167
19.080	5837.500
19.400	5379.167
19.720	5337.500
20.040	4779.167
20.360	4662.500
20.680	4562.500
21.000	4516.667
21.320	5391.667
21.640	7179.167
21.960	137879.167
22.280	6020.833
22.600	4658.333
22.920	4412.500
23.240	4341.667
23.560	4458.333
23.880	4883.333
24.200	4287.500
24.520	4062.500
24.840	4279.167
25.160	4179.167
25.480	4204.167
25.800	4316.667
26.120	4241.667
26.440	4750.000
26.760	4408.333
27.080	4141.667
27.400	4333.333
27.720	4308.333
28.040	4025.000
28.360	4387.500
28.680	4370.833
29.000	4383.333
29.320	4212.500
29.640	4291.667
29.960	4341.667
30.280	4250.000
30.600	4733.333
30.920	5216.667
31.240	6604.167
31.560	7200.000
31.880	6525.000
32.200	9383.333
32.520	17191.667
32.840	14170.833
33.160	6045.833
33.480	5333.333
33.800	5150.000
34.120	5150.000
34.440	5345.833
34.760	5787.500
35.080	6270.833
35.400	18750.000
35.720	8091.667
36.040	5945.833
36.360	5075.000
36.680	4833.333
37.000	4650.000
37.320	4500.000
37.640	4350.000
37.960	5737.500
38.280	4354.167
38.600	4383.333
38.920	4225.000
39.240	4754.167
39.560	6379.167
39.880	5275.000
40.200	4541.667
40.520	4341.667
40.840	5175.000
41.160	4041.667
41.480	4129.167
41.800	4108.333
42.120	4366.667
42.440	4262.500
42.760	4154.167
43.080	4395.833
43.400	4295.833
43.720	4312.500
44.040	4404.167
44.360	5091.667
44.680	48458.333
45.000	5658.333
45.320	4420.833
45.640	4350.000
45.960	4320.833
46.280	4262.500
46.600	4279.167
46.920	4462.500
47.240	4766.667
47.560	5425.000
47.880	6645.833
48.200	8750.000
48.520	6733.333
48.840	5504.167
49.160	6537.500
49.480	5479.167
49.800	8037.500
50.120	15000.000
50.440	4845.833
50.760	4604.167
51.080	4420.833
51.400	4554.167
51.720	4341.667
52.040	4400.000
52.360	4216.667
52.680	4087.500
53.000	4254.167
53.320	4816.667
53.640	4500.000
53.960	4195.833
54.280	5625.000
54.600	4295.833
54.920	4183.333
55.240	4037.500
55.560	4050.000
55.880	4166.667
56.200	4325.000
56.520	4020.833
56.840	4350.000
57.160	4487.500
57.480	4704.167
57.800	4062.500
58.120	4183.333
58.440	5104.167
58.760	4075.000
59.080	4004.167
59.400	3925.000
59.720	3929.167
60.040	3991.667
60.360	3887.500
60.680	4054.167
61.000	4116.667
61.320	4037.500
61.640	4054.167
61.960	4162.500
62.280	4250.000
62.600	4145.833
62.920	4150.000
63.240	4225.000
63.560	4479.167
63.880	4812.500
64.200	4716.667
64.520	4558.333
64.840	4383.333
65.160	4470.833
65.480	4616.667
65.800	4666.667
66.120	4241.667
66.440	4429.167
66.760	4366.667
67.080	4604.167
67.400	4841.667
67.720	5025.000
68.040	5887.500
68.360	12375.000
68.680	52541.667
69.000	6462.500
69.320	5450.000
69.640	6529.167
69.960	4266.667
70.280	4237.500
70.600	4166.667
70.920	4195.833
71.240	4208.333
71.560	4195.833
71.880	4066.667
72.200	4345.833
72.520	4625.000
72.840	5100.000
73.160	5054.167
73.480	4754.167
73.800	4475.000
74.120	4104.167
74.440	4354.167
74.760	4200.000
75.080	4600.000
75.400	4454.167
75.720	4612.500
76.040	4637.500
76.360	4512.500
76.680	4633.333
77.000	4637.500
77.320	4258.333
77.640	4104.167
77.960	3991.667
78.280	3791.667
78.600	3837.500
78.920	3779.167
79.240	3745.833
79.560	3791.667
79.880	3808.333
80.200	3866.667
80.520	3816.667
80.840	3808.333
81.160	3779.167
81.480	3716.667
81.800	3620.833
82.120	3716.667
82.440	3841.667
82.760	3891.667
83.080	4025.000
83.400	3983.333
83.720	3725.000
84.040	3966.667
84.360	4029.167
84.680	4066.667
85.000	4250.000
85.320	3854.167
85.640	3833.333
85.960	4079.167
86.280	3783.333
86.600	3716.667
86.920	3725.000
87.240	3787.500
87.560	3716.667
87.880	3745.833
88.200	3912.500
88.520	3704.167
88.840	3983.333
89.160	4333.333
89.480	10641.667
89.800	8070.833
90.120	4075.000
90.440	3825.000
90.760	3483.333
91.080	3837.500
91.400	3741.667
91.720	3658.333
92.040	3695.833
92.360	3575.000
92.680	3804.167
93.000	3737.500
93.320	3670.833
93.640	3716.667
93.960	3687.500
94.280	3808.333
94.600	3812.500
94.920	3604.167
95.240	3729.167
95.560	3591.667
95.880	3550.000
96.200	3745.833
96.520	3562.500
96.840	3591.667
97.160	3637.500
97.480	4045.833
97.800	3691.667
98.120	3854.167
98.440	4012.500
98.760	4175.000
99.080	4354.167
99.400	4058.333
99.720	3945.833
100.000	3708.333