File: xrd/Graphene_CuO_in_CuCl2_550.xy
5.000	1437.500
5.300	1495.833
5.600	1262.500
5.900	1162.500
6.200	1141.667
6.500	1066.667
6.800	1104.167
7.100	1166.667
7.400	1087.500
7.700	1108.333
8.000	1120.833
8.300	987.500
8.600	1112.500
8.900	1062.500
9.200	1079.167
9.500	1133.333
9.800	1154.167
10.100	1100.000
10.400	1191.667
10.700	1066.667
11.000	1200.000
11.300	1145.833
11.600	1008.333
11.900	1141.667
12.200	1158.333
12.500	1054.167
12.800	1070.833
13.100	1029.167
13.400	991.667
13.700	1058.333
14.000	1000.000
14.300	912.500
14.600	933.333
14.900	945.833
15.200	933.333
15.500	1029.167
15.800	945.833
16.100	891.667
16.400	929.167
16.700	870.833
17.000	929.167
17.300	916.667
17.600	858.333
17.900	900.000
18.200	950.000
18.500	841.667
18.800	891.667
19.100	1050.000
19.400	745.833
19.700	808.333
20.000	879.167
20.300	800.000
20.600	787.500
20.900	858.333
21.200	795.833
21.500	750.000
21.800	816.667
22.100	779.167
22.400	787.500
22.700	729.167
23.000	729.167
23.300	845.833
23.600	837.500
23.900	795.833
24.200	804.167
24.500	745.833
24.800	812.500
25.100	770.833
25.400	787.500
25.700	804.167
26.000	720.833
26.300	662.500
26.600	741.667
26.900	795.833
27.200	812.500
27.500	775.000
27.800	733.333
28.100	687.500
28.400	879.167
28.700	858.333
29.000	875.000
29.300	820.833
29.600	904.167
29.900	900.000
30.200	1041.667
30.500	920.833
30.800	1312.500
31.100	1670.833
31.400	3108.333
31.700	35516.667
32.000	13208.333
32.300	2216.667
32.600	1454.167
32.900	1154.167
33.200	1154.167
33.500	1375.000
33.800	1679.167
34.100	2545.833
34.400	45141.667
34.700	6391.667
35.000	2062.500
35.300	2050.000
35.600	3450.000
35.900	5025.000
36.200	71987.500
36.500	23550.000
36.800	3054.167
37.100	1933.333
37.400	1579.167
37.700	1345.833
38.000	1229.167
38.300	1250.000
38.600	1525.000
38.900	1475.000
39.200	1120.833
39.500	945.833
39.800	908.333
40.100	975.000
40.400	887.500
40.700	904.167
41.000	900.000
41.300	841.667
41.600	804.167
41.900	833.333
42.200	733.333
42.500	758.333
42.800	766.667
43.100	829.167
43.400	808.333
43.700	687.500
44.000	700.000
44.300	675.000
44.600	750.000
44.900	779.167
45.200	762.500
45.500	654.167
45.800	745.833
46.100	745.833
46.400	695.833
46.700	787.500
47.000	1041.667
47.300	2587.500
47.600	32741.667
47.900	2929.167
48.200	1008.333
48.500	770.833
48.800	920.833
49.100	750.000
49.400	733.333
49.700	670.833
50.000	695.833
50.300	637.500
50.600	679.167
50.900	712.500
51.200	687.500
51.500	658.333
51.800	662.500
52.100	683.333
52.400	645.833
52.700	712.500
53.000	691.667
53.300	691.667
53.600	783.333
53.900	662.500
54.200	641.667
54.500	687.500
54.800	783.333
55.100	925.000
55.400	916.667
55.700	991.667
56.000	1358.333
56.300	3316.667
56.600	42770.833
56.900	8362.500
57.200	1545.833
57.500	1008.333
57.800	887.500
58.100	795.833
58.400	945.833
58.700	750.000
59.000	779.167
59.300	737.500
59.600	791.667
59.900	729.167
60.200	770.833
60.500	908.333
60.800	841.667
61.100	920.833
61.400	958.333
61.700	1108.333
62.000	1029.167
62.300	1429.167
62.600	4020.833
62.900	36791.667
63.200	6537.500
63.500	1483.333
63.800	1008.333
64.100	983.333
64.400	1037.500
64.700	929.167
65.000	787.500
65.300	895.833
65.600	958.333
65.900	1279.167
66.200	2075.000
66.500	4883.333
66.800	1437.500
67.100	1216.667
67.400	1583.333
67.700	4020.833
68.000	27620.833
68.300	6212.500
68.600	1845.833
68.900	3637.500
69.200	10733.333
69.500	2287.500
69.800	1070.833
70.100	887.500
70.400	862.500
70.700	770.833
71.000	750.000
71.300	783.333
71.600	679.167
71.900	758.333
72.200	841.667
72.500	1979.167
72.800	1945.833
73.100	725.000
73.400	650.000
73.700	658.333
74.000	608.333
74.300	675.000
74.600	629.167
74.900	737.500
75.200	691.667
75.500	679.167
75.800	645.833
76.100	637.500
76.400	725.000
76.700	1237.500
77.000	4791.667
77.300	1920.833
77.600	654.167
77.900	650.000
78.200	650.000
78.500	525.000
78.800	608.333
79.100	616.667
79.400	537.500
79.700	575.000
80.000	550.000
80.300	600.000
80.600	591.667
80.900	654.167
81.200	1029.167
81.500	1954.167
81.800	950.000
82.100	641.667
82.400	625.000
82.700	637.500
83.000	591.667
83.300	633.333
83.600	633.333
83.900	629.167
84.200	558.333
84.500	533.333
84.800	450.000
85.100	512.500
85.400	583.333
85.700	558.333
86.000	529.167
86.300	545.833
86.600	575.000
86.900	625.000
87.200	566.667
87.500	583.333
87.800	541.667
88.100	550.000
88.400	545.833
88.700	704.167
89.000	825.000
89.300	1595.833
89.600	8008.333
89.900	5154.167
90.000	5079.167