File: xrd/Graphene_ZnO_in_FeCl3.xy
5.000	2035.000
5.290	1765.000
5.580	1725.000
5.870	1820.000
6.160	1675.000
6.450	1665.000
6.740	1675.000
7.030	1660.000
7.320	1570.000
7.610	1570.000
7.900	1595.000
8.190	1565.000
8.480	1645.000
8.770	1630.000
9.060	1580.000
9.350	1735.000
9.640	1695.000
9.930	1730.000
10.220	1740.000
10.510	1820.000
10.800	1890.000
11.090	1910.000
11.380	2015.000
11.670	2125.000
11.960	2130.000
12.250	2175.000
12.540	2215.000
12.830	2310.000
13.120	2190.000
13.410	2360.000
13.700	2395.000
13.990	2270.000
14.280	2320.000
14.570	2475.000
14.860	2725.000
15.150	2675.000
15.440	2695.000
15.730	2720.000
16.020	2820.000
16.310	2855.000
16.600	3015.000
16.890	3050.000
17.180	3105.000
17.470	2980.000
17.760	3035.000
18.050	3210.000
18.340	3110.000
18.630	3270.000
18.920	3045.000
19.210	3100.000
19.500	3150.000
19.790	3095.000
20.080	3170.000
20.370	3150.000
20.660	3270.000
20.950	3255.000
21.240	3170.000
21.530	3280.000
21.820	3300.000
22.110	3180.000
22.400	3125.000
22.690	3375.000
22.980	3280.000
23.270	3385.000
23.560	3450.000
23.850	3480.000
24.140	3435.000
24.430	3380.000
24.720	3625.000
25.010	3780.000
25.300	3755.000
25.590	3840.000
25.880	3820.000
26.170	4515.000
26.460	4825.000
26.750	4755.000
27.040	4495.000
27.330	4360.000
27.620	4015.000
27.910	3890.000
28.200	4045.000
28.490	3985.000
28.780	4045.000
29.070	4070.000
29.360	3945.000
29.650	3985.000
29.940	4040.000
30.230	4035.000
30.520	3715.000
30.810	4130.000
31.100	3865.000
31.390	3725.000
31.680	3925.000
31.970	3865.000
32.260	3785.000
32.550	4025.000
32.840	3960.000
33.130	3950.000
33.420	4060.000
33.710	3910.000
34.000	4055.000
34.290	4230.000
34.580	4475.000
34.870	4460.000
35.160	4700.000
35.450	4480.000
35.740	4135.000
36.030	4115.000
36.320	3855.000
36.610	4020.000
36.900	3960.000
37.190	3875.000
37.480	4045.000
37.770	3855.000
38.060	3980.000
38.350	3855.000
38.640	4045.000
38.930	4045.000
39.220	4200.000
39.510	3980.000
39.800	4015.000
40.090	3995.000
40.380	3920.000
40.670	3765.000
40.960	3885.000
41.250	3740.000
41.540	3860.000
41.830	3745.000
42.120	4025.000
42.410	4185.000
42.700	3915.000
42.990	3920.000
43.280	4130.000
43.570	4145.000
43.860	4015.000
44.150	4180.000
44.440	4180.000
44.730	4100.000
45.020	4045.000
45.310	4195.000
45.600	4210.000
45.890	4235.000
46.180	4225.000
46.470	4320.000
46.760	4050.000
47.050	3925.000
47.340	4145.000
47.630	4145.000
47.920	4020.000
48.210	4005.000
48.500	4020.000
48.790	4300.000
49.080	4130.000
49.370	4100.000
49.660	4015.000
49.950	4055.000
50.240	3895.000
50.530	4050.000
50.820	4260.000
51.110	4140.000
51.400	4265.000
51.690	4225.000
51.980	4410.000
52.270	4125.000
52.560	4130.000
52.850	4175.000
53.140	4175.000
53.430	4170.000
53.720	4160.000
54.010	4145.000
54.300	4065.000
54.590	4140.000
54.880	4175.000
55.170	4295.000
55.460	4430.000
55.750	4500.000
56.040	4470.000
56.330	4160.000
56.620	4110.000
56.910	4060.000
57.200	4115.000
57.490	4045.000
57.780	3960.000
58.070	3785.000
58.360	3900.000
58.650	3885.000
58.940	3775.000
59.230	3795.000
59.520	3830.000
59.810	3775.000
60.100	3930.000
60.390	3855.000
60.680	3970.000
60.970	4220.000
61.260	4060.000
61.550	3945.000
61.840	3940.000
62.130	3980.000
62.420	3990.000
62.710	4095.000
63.000	3975.000
63.290	3945.000
63.580	4040.000
63.870	4125.000
64.160	4080.000
64.450	3845.000
64.740	3920.000
65.030	4020.000
65.320	3870.000
65.610	3735.000
65.900	3865.000
66.190	3855.000
66.480	3675.000
66.770	3825.000
67.060	3795.000
67.350	3870.000
67.640	3890.000
67.930	3850.000
68.220	3890.000
68.510	3795.000
68.800	3815.000
69.090	3745.000
69.380	3835.000
69.670	3800.000
69.960	3780.000
70.250	3640.000
70.540	3840.000
70.830	3735.000
71.120	3675.000
71.410	3735.000
71.700	3735.000
71.990	3775.000
72.280	3850.000
72.570	3730.000
72.860	3645.000
73.150	3655.000
73.440	3890.000
73.730	3715.000
74.020	3770.000
74.310	3625.000
74.600	3725.000
74.890	4060.000
75.180	3755.000
75.470	3745.000
75.760	3725.000
76.050	3720.000
76.340	3675.000
76.630	3670.000
76.920	3645.000
77.210	3605.000
77.500	3810.000
77.790	3705.000
78.080	3755.000
78.370	3600.000
78.660	3835.000
78.950	3650.000
79.240	3670.000
79.530	3590.000
79.820	3775.000
80.110	3700.000
80.400	3680.000
80.690	3510.000
80.980	3810.000
81.270	3665.000
81.560	3640.000
81.850	3655.000
82.140	3655.000
82.430	3720.000
82.720	3700.000
83.010	3750.000
83.300	3695.000
83.590	3735.000
83.880	3865.000
84.170	3960.000
84.460	3815.000
84.750	3655.000
85.040	3675.000
85.330	3585.000
85.620	3695.000
85.910	3675.000
86.200	3860.000
86.490	3685.000
86.780	3735.000
87.070	3620.000
87.360	3660.000
87.650	3710.000
87.940	3585.000
88.230	3760.000
88.520	3685.000
88.810	3650.000
89.100	3635.000
89.390	3790.000
89.680	3675.000
89.970	3615.000
90.000	3615.000