File: xrd/Graphene_ZnO_in_CuCl2.xy
5.000	2025.000
5.290	1870.000
5.580	1515.000
5.870	1670.000
6.160	1605.000
6.450	1355.000
6.740	1455.000
7.030	1370.000
7.320	1480.000
7.610	1330.000
7.900	1300.000
8.190	1215.000
8.480	1370.000
8.770	1240.000
9.060	1335.000
9.350	1250.000
9.640	1320.000
9.930	1345.000
10.220	1370.000
10.510	1655.000
10.800	4690.000
11.090	158445.000
11.380	5855.000
11.670	2720.000
11.960	2295.000
12.250	1855.000
12.540	1785.000
12.830	1545.000
13.120	1600.000
13.410	1440.000
13.700	1405.000
13.990	1305.000
14.280	1350.000
14.570	1435.000
14.860	1525.000
15.150	3015.000
15.440	24445.000
15.730	5715.000
16.020	2460.000
16.310	2010.000
16.600	2250.000
16.890	1320.000
17.180	1255.000
17.470	1150.000
17.760	1645.000
18.050	1135.000
18.340	1125.000
18.630	985.000
18.920	1040.000
19.210	1080.000
19.500	990.000
19.790	950.000
20.080	1000.000
20.370	1095.000
20.660	1065.000
20.950	970.000
21.240	1080.000
21.530	1210.000
21.820	2125.000
22.110	5070.000
22.400	11500.000
22.690	1650.000
22.980	1150.000
23.270	1200.000
23.560	1155.000
23.850	1155.000
24.140	1250.000
24.430	1585.000
24.720	20795.000
25.010	1790.000
25.300	1565.000
25.590	1915.000
25.880	2605.000
26.170	5985.000
26.460	32895.000
26.750	4850.000
27.040	2040.000
27.330	1480.000
27.620	1475.000
27.910	2730.000
28.200	2730.000
28.490	1325.000
28.780	1240.000
29.070	1180.000
29.360	1270.000
29.650	1205.000
29.940	1570.000
30.230	9240.000
30.520	2775.000
30.810	4360.000
31.100	12590.000
31.390	3560.000
31.680	5075.000
31.970	2490.000
32.260	3480.000
32.550	4115.000
32.840	12215.000
33.130	3150.000
33.420	27280.000
33.710	2895.000
34.000	7165.000
34.290	17775.000
34.580	3965.000
34.870	2505.000
35.160	1910.000
35.450	1715.000
35.740	2025.000
36.030	3030.000
36.320	7210.000
36.610	1585.000
36.900	1350.000
37.190	1280.000
37.480	1690.000
37.770	17525.000
38.060	1880.000
38.350	1220.000
38.640	1105.000
38.930	1125.000
39.220	1335.000
39.510	1320.000
39.800	1290.000
40.090	1275.000
40.380	1445.000
40.670	1560.000
40.960	1830.000
41.250	1755.000
41.540	4790.000
41.830	1425.000
42.120	1240.000
42.410	1140.000
42.700	1060.000
42.990	1250.000
43.280	1280.000
43.570	1500.000
43.860	1705.000
44.150	1660.000
44.440	2605.000
44.730	17090.000
45.020	5650.000
45.310	2000.000
45.600	1770.000
45.890	6625.000
46.180	3595.000
46.470	1780.000
46.760	1180.000
47.050	1225.000
47.340	1400.000
47.630	2315.000
47.920	3140.000
48.210	1635.000
48.500	1325.000
48.790	1350.000
49.080	1330.000
49.370	1270.000
49.660	2010.000
49.950	1275.000
50.240	1150.000
50.530	1335.000
50.820	5430.000
51.110	3105.000
51.400	2100.000
51.690	4785.000
51.980	1195.000
52.270	1060.000
52.560	1055.000
52.850	1420.000
53.140	1275.000
53.430	1385.000
53.720	2760.000
54.010	10120.000
54.300	3475.000
54.590	4215.000
54.880	2820.000
55.170	2000.000
55.460	1505.000
55.750	1665.000
56.040	1175.000
56.330	1215.000
56.620	1850.000
56.910	1490.000
57.200	1705.000
57.490	1495.000
57.780	1785.000
58.070	12260.000
58.360	4010.000
58.650	1895.000
58.940	1490.000
59.230	3170.000
59.520	3635.000
59.810	1330.000
60.100	1125.000
60.390	1175.000
60.680	1720.000
60.970	12045.000
61.260	2845.000
61.550	2595.000
61.840	2440.000
62.130	1010.000
62.420	1030.000
62.710	1815.000
63.000	2140.000
63.290	1465.000
63.580	945.000
63.870	1035.000
64.160	1740.000
64.450	1425.000
64.740	2750.000
65.030	1195.000
65.320	1030.000
65.610	1295.000
65.900	1215.000
66.190	1020.000
66.480	1010.000
66.770	845.000
67.060	980.000
67.350	2440.000
67.640	1335.000
67.930	1590.000
68.220	1535.000
68.510	1980.000
68.800	1835.000
69.090	1610.000
69.380	1890.000
69.670	1175.000
69.960	1135.000
70.250	1130.000
70.540	860.000
70.830	940.000
71.120	950.000
71.410	1735.000
71.700	2780.000
71.990	1660.000
72.280	1335.000
72.570	3545.000
72.860	1335.000
73.150	825.000
73.440	895.000
73.730	955.000
74.020	1040.000
74.310	825.000
74.600	790.000
74.890	855.000
75.180	835.000
75.470	920.000
75.760	950.000
76.050	870.000
76.340	1130.000
76.630	1675.000
76.920	1860.000
77.210	1980.000
77.500	1110.000
77.790	730.000
78.080	750.000
78.370	1010.000
78.660	1275.000
78.950	1025.000
79.240	695.000
79.530	780.000
79.820	835.000
80.110	890.000
80.400	725.000
80.690	880.000
80.980	1235.000
81.270	1105.000
81.560	1010.000
81.850	725.000
82.140	765.000
82.430	845.000
82.720	820.000
83.010	845.000
83.300	2000.000
83.590	2330.000
83.880	1140.000
84.170	845.000
84.460	1000.000
84.750	735.000
85.040	745.000
85.330	775.000
85.620	940.000
85.910	795.000
86.200	765.000
86.490	730.000
86.780	880.000
87.070	1680.000
87.360	1260.000
87.650	980.000
87.940	820.000
88.230	710.000
88.520	725.000
88.810	780.000
89.100	1165.000
89.390	1670.000
89.680	1460.000
89.970	1625.000
90.000	1625.000